Corrected dielectric energy   =     -0.013449680
Total C-PCM charge            =     -0.000000000
C-PCM corrected charges:
    -0.000119064
     0.000146420
    -0.000054248
    -0.000054540
     0.000302545
    -0.000003459
     0.000301777
    -0.000003437
     0.000008402
    -0.000265642
     0.000008430
    -0.000266035
     0.000000067
    -0.000003841
     0.000626967
     0.000530573
    -0.000029601
    -0.001241985
    -0.000000124
     0.000531134
    -0.000031049
    -0.001239770
    -0.000000124
     0.000004276
    -0.000073446
    -0.000000017
    -0.000329473
     0.000004280
    -0.000073183
    -0.000000017
    -0.000329412
     0.000036632
     0.000718538
     0.000037068
    -0.000000764
     0.000036717
     0.000718979
     0.000037273
    -0.000000767
     0.000785299
     0.000057236
    -0.000595671
    -0.000000001
     0.000785087
     0.000055698
    -0.000595519
    -0.000000001
     0.000758557
     0.000477533
    -0.000366359
     0.000758343
     0.000478747
    -0.000366350
    -0.000360362
    -0.000000005
    -0.000647031
    -0.000089239
    -0.000360825
    -0.000000005
    -0.000646723
    -0.000090376
     0.000023420
    -0.000291116
     0.000023204
    -0.000291076
     0.001911566
     0.000980794
     0.000284681
     0.001910958
     0.000980835
     0.000285071
     0.001266365
    -0.000020761
    -0.001405479
    -0.000025216
     0.001265830
    -0.000020617
    -0.001403862
    -0.000025082
     0.000151779
    -0.000202219
     0.000151077
    -0.000202195
     0.000160940
    -0.000273172
    -0.000202229
    -0.000000421
     0.000161526
    -0.000273047
    -0.000202516
    -0.000000425
    -0.000010703
     0.000025861
     0.000490814
    -0.000010675
     0.000025928
     0.000490622
    -0.000175434
    -0.000189127
    -0.000175478
    -0.000189145
    -0.000406661
    -0.001487815
     0.000874864
    -0.000267118
    -0.000040810
     0.000753281
    -0.000014059
     0.000753350
    -0.000014160
    -0.000106471
    -0.000106365
     0.000550421
    -0.000000191
     0.000550704
    -0.000000192
    -0.000020240
    -0.000111916
    -0.000020124
    -0.000112744
    -0.000215878
    -0.000165262
    -0.000548693
    -0.000032967
    -0.000216703
    -0.000164642
    -0.000548521
    -0.000032766
     0.000540090
     0.000810225
    -0.000037029
     0.000540055
     0.000810165
    -0.000036953
     0.000219128
    -0.000433993
     0.000219552
    -0.000434094
    -0.000566234
     0.000047725
    -0.000566112
     0.000047483
     0.001811618
    -0.000223491
     0.001518642
    -0.000000175
     0.001812149
    -0.000222889
     0.001519455
    -0.000000177
     0.000278882
    -0.000000002
    -0.000538112
     0.000454846
     0.000278818
    -0.000000002
    -0.000538999
     0.000453934
     0.000920391
     0.001973963
     0.002840539
     0.002840964
     0.007268730
    -0.000078918
     0.007268755
    -0.000079292
     0.006202547
     0.002842595
     0.004889250
     0.001716325
     0.006202955
     0.002841159
     0.004890433
     0.001715570
     0.004907387
     0.002322051
    -0.000000017
     0.004907133
     0.002321612
    -0.000000017
     0.003283534
    -0.000026369
     0.003283823
    -0.000025469
     0.006821702
    -0.000000003
     0.006821687
    -0.000000003
     0.006349283
     0.003033639
     0.006350099
     0.003036373
     0.007384826
     0.002669607
    -0.000150460
    -0.000334421
     0.007384265
     0.002667658
    -0.000151133
    -0.000334113
     0.007488769
     0.000003728
     0.002295979
    -0.000000548
     0.007488954
     0.000003716
     0.002300370
    -0.000000547
     0.006799787
    -0.000005090
    -0.000000231
     0.006799432
    -0.000005099
    -0.000000231
     0.005728687
    -0.000617285
     0.005729049
    -0.000617870
     0.006648510
    -0.000000213
     0.005561417
    -0.000057960
     0.006257442
    -0.000000008
     0.006258627
    -0.000000008
     0.003511168
     0.003512424
     0.007060788
     0.002566075
     0.007060285
     0.002569251
     0.005574376
    -0.000000953
     0.005573595
    -0.000000962
    -0.000379688
    -0.000305586
    -0.000426999
    -0.000000125
    -0.000000195
    -0.000436113
    -0.000911471
    -0.001257201
    -0.000682458
    -0.000792292
    -0.000880702
    -0.001019513
    -0.000148879
    -0.000394974
    -0.000674482
    -0.000701586
    -0.000004169
    -0.000293224
    -0.000554856
    -0.000763541
    -0.000000002
    -0.000493351
    -0.000005614
    -0.000327335
    -0.001000917
    -0.000157493
    -0.000919581
    -0.000748048
    -0.001224151
    -0.000042650
    -0.000340213
    -0.001099502
    -0.001288522
    -0.000521794
    -0.000744684
    -0.000962775
    -0.001293604
    -0.000000004
    -0.000086617
    -0.000001751
    -0.000869748
    -0.001082745
    -0.000034643
    -0.000559823
    -0.000201145
    -0.001064535
    -0.000221118
    -0.000757236
    -0.000004333
    -0.000000004
    -0.000852983
    -0.000777043
    -0.001130162
    -0.000000001
    -0.000005960
    -0.000958244
    -0.000615884
    -0.001228444
    -0.000000353
    -0.000000036
    -0.001034231
    -0.000414286
    -0.000557427
    -0.000598428
    -0.001068931
    -0.000598839
    -0.001069140
    -0.000005254
    -0.000121251
    -0.000005299
    -0.000121595
    -0.001023358
    -0.001167632
    -0.001023412
    -0.001167689
    -0.000789127
    -0.000036357
    -0.000789109
    -0.000036400
    -0.000817045
    -0.001326106
    -0.000817091
    -0.001326189
    -0.000000024
    -0.000788046
    -0.000000836
    -0.000000024
    -0.000788204
    -0.000000842
    -0.000947672
    -0.001037419
    -0.000947765
    -0.001037642
    -0.000182055
    -0.000769945
    -0.000182590
    -0.000770050
    -0.000990091
    -0.001291840
    -0.000990126
    -0.001291986
    -0.000004298
    -0.001005503
    -0.000000001
    -0.000004312
    -0.001005633
    -0.000000001
    -0.001024782
    -0.001425365
    -0.000026759
    -0.001145570
    -0.000034682
    -0.000034824
    -0.000471515
    -0.000472093
    -0.000705386
    -0.000705994
    -0.001174087
    -0.001174255
    -0.000379732
    -0.000305607
    -0.000427059
    -0.000000196
    -0.000436202
    -0.000911538
    -0.001257157
    -0.000000125
    -0.000682583
    -0.000792466
    -0.000880765
    -0.001019592
    -0.000674420
    -0.000701404
    -0.000148450
    -0.000395039
    -0.000555126
    -0.000763543
    -0.000004180
    -0.000293215
    -0.000005650
    -0.000326808
    -0.001000825
    -0.000000002
    -0.000492976
    -0.000157697
    -0.000919755
    -0.000747978
    -0.001224232
    -0.000042825
    -0.000340794
    -0.001099397
    -0.001288435
    -0.000522371
    -0.000744879
    -0.000962775
    -0.001293632
    -0.000001765
    -0.000869758
    -0.001082594
    -0.000000004
    -0.000086357
    -0.000560303
    -0.000200943
    -0.001064536
    -0.000034588
    -0.000220581
    -0.000757081
    -0.000004355
    -0.000000004
    -0.000852957
    -0.000777149
    -0.001130319
    -0.000005960
    -0.000958310
    -0.000000001
    -0.000616004
    -0.001228433
    -0.000000036
    -0.001034050
    -0.000000349
    -0.001098727
    -0.001515342
    -0.000258768
    -0.000257654
    -0.000000003
    -0.003297187
    -0.003529302
    -0.000000003
    -0.003296882
    -0.003529623
    -0.000086872
    -0.000000277
    -0.001497386
    -0.001317599
    -0.000086337
    -0.000000273
    -0.001496608
    -0.001316405
    -0.003109716
    -0.002985615
    -0.003109650
    -0.002985550
    -0.002068831
    -0.002480485
    -0.002068792
    -0.002480399
    -0.003662708
    -0.003618949
    -0.003662609
    -0.003617843
    -0.001103302
    -0.002654056
    -0.000001414
    -0.001101387
    -0.002653590
    -0.000001400
    -0.003273118
    -0.003043759
    -0.003272735
    -0.003043366
     0.000000049
    -0.002621728
    -0.002437815
     0.000000051
    -0.002621168
    -0.002437918
    -0.003547329
    -0.003295331
    -0.003547154
    -0.003295177
    -0.000284814
    -0.003136596
    -0.000000028
    -0.000284301
    -0.003136389
    -0.000000028
    -0.003727191
    -0.003545144
    -0.000100625
    -0.003383041
    -0.000000012
    -0.001622868
    -0.000009678
    -0.001621791
    -0.000009580
    -0.002404253
    -0.002403938
    -0.002503576
    -0.002502947
    -0.003449141
    -0.003448917
