Corrected dielectric energy   =     -0.007030737
Total C-PCM charge            =      0.000000000
C-PCM corrected charges:
    -0.000000006
     0.000353032
    -0.000053922
    -0.000053766
    -0.000038384
    -0.000038548
     0.001004937
     0.001004948
    -0.000000016
     0.000000520
     0.000593398
    -0.000430952
    -0.000139159
    -0.000316634
    -0.000430916
    -0.000139210
    -0.000316518
    -0.000003609
     0.000007203
     0.000577095
    -0.000003609
     0.000007213
     0.000577216
     0.000050037
    -0.000000130
     0.000592911
     0.000050108
    -0.000000131
     0.000592968
    -0.000042898
    -0.000000032
    -0.000001139
    -0.000042533
    -0.000000032
    -0.000001143
    -0.000297304
     0.000669824
    -0.000000365
    -0.000005430
    -0.000297645
     0.000669927
    -0.000000364
    -0.000005424
    -0.000452841
    -0.000200740
    -0.000123929
    -0.000453096
    -0.000200455
    -0.000123310
    -0.000000034
     0.000379932
    -0.000000034
     0.000379881
     0.000632688
    -0.000002314
    -0.000046272
     0.000632822
    -0.000002309
    -0.000046298
    -0.000696275
    -0.000193567
    -0.000372733
    -0.000696148
    -0.000193664
    -0.000372760
    -0.000008575
     0.000792770
    -0.000008576
     0.000792764
    -0.000302550
     0.000029060
    -0.000005943
    -0.000015448
    -0.000302789
     0.000028761
    -0.000005919
    -0.000015406
    -0.000000001
     0.000585395
     0.000531961
    -0.000000001
     0.000585754
     0.000532276
    -0.000000016
    -0.000243888
    -0.000000016
    -0.000243892
    -0.000664170
     0.000997722
     0.000757494
     0.000261539
    -0.000608842
     0.000025296
    -0.000608432
     0.000024983
    -0.000189999
    -0.000190007
     0.000091580
     0.000091946
    -0.000186379
    -0.000186580
    -0.000152245
    -0.000001148
    -0.000004714
    -0.000152483
    -0.000001152
    -0.000004731
    -0.000071244
    -0.000000248
    -0.000071541
     0.000000281
    -0.000267650
     0.000672040
    -0.000267656
     0.000672000
     0.000618901
     0.000618859
    -0.000023400
     0.001030979
    -0.000420666
     0.000143780
    -0.000023513
     0.001031041
    -0.000420534
     0.000143638
    -0.000107774
     0.000910426
     0.000619960
    -0.000107775
     0.000910591
     0.000620088
     0.000068967
    -0.000064195
    -0.000064416
    -0.000000105
    -0.000000104
    -0.000019597
    -0.000019522
    -0.000000044
    -0.000536564
    -0.000010750
    -0.000475033
    -0.000010746
    -0.000475119
    -0.000000335
    -0.000836114
    -0.000000335
    -0.000836150
    -0.001180641
    -0.001180612
    -0.000000641
    -0.000000108
    -0.000000639
    -0.000000108
    -0.000002569
    -0.000000785
    -0.000000000
    -0.000295372
    -0.000002573
    -0.000000789
    -0.000000000
    -0.000294869
    -0.000747840
    -0.000775172
    -0.000748015
    -0.000775101
    -0.000175970
    -0.000175752
    -0.000006602
    -0.000006600
    -0.000006598
    -0.000006613
    -0.000706447
    -0.000425989
    -0.000705827
    -0.000425765
    -0.000922465
    -0.000922353
    -0.000013690
    -0.000007824
    -0.000398914
    -0.000848560
    -0.000013733
    -0.000007857
    -0.000398828
    -0.000848330
    -0.000075885
    -0.000141623
    -0.000076253
    -0.000141984
     0.000053302
    -0.000057731
    -0.000247011
    -0.000000794
    -0.000853350
    -0.000000794
    -0.000853742
    -0.000446172
    -0.000446158
    -0.000288896
    -0.000288502
    -0.000004490
    -0.000002257
    -0.000004473
    -0.000002250
    -0.000000005
    -0.000057374
    -0.000000005
    -0.000057105
    -0.000048801
    -0.000048683
    -0.000799736
    -0.000799729
    -0.000815393
    -0.000044970
    -0.000815868
    -0.000044797
    -0.000321273
    -0.000466330
    -0.000321444
    -0.000466473
     0.000094126
     0.000236178
     0.000363504
     0.000392520
     0.000392521
     0.001525496
     0.000758982
     0.001419124
     0.001525494
     0.000758981
     0.001419073
     0.001486168
     0.000526988
     0.001303023
     0.001386841
     0.001486170
     0.000527087
     0.001303024
     0.001386877
     0.001415417
    -0.000013265
     0.000908679
     0.001627955
     0.001415412
    -0.000013240
     0.000908678
     0.001627966
     0.001028580
     0.000255450
     0.001028579
     0.000255449
     0.001510758
     0.000455546
     0.000688811
     0.001510755
     0.000455545
     0.000688746
     0.001390049
     0.000803538
     0.000360445
     0.001390047
     0.000803538
     0.000360080
     0.001533652
    -0.000111798
     0.001113954
     0.001643972
     0.001533649
    -0.000111784
     0.001113953
     0.001644012
     0.001531495
    -0.000144206
     0.001078618
     0.001497060
     0.001531494
    -0.000144350
     0.001078618
     0.001497134
     0.001546127
     0.000810782
     0.001735821
     0.001546123
     0.000810780
     0.001735861
     0.001339359
     0.000455506
    -0.000000440
     0.001339357
     0.000455505
    -0.000000438
     0.001002040
     0.000913648
     0.001023249
     0.000976252
     0.001002045
     0.000913653
     0.001023253
     0.000976258
     0.000716337
     0.000473406
     0.000839067
     0.000988928
     0.000716336
     0.000473409
     0.000839067
     0.000988928
     0.000341321
     0.000169705
     0.000341321
     0.000169705
     0.001339264
     0.001000926
     0.001320593
     0.001265354
     0.001339268
     0.001000931
     0.001320596
     0.001265366
     0.001131485
    -0.000100924
     0.000967484
     0.001404146
     0.001131481
    -0.000101165
     0.000967483
     0.001404148
     0.000670404
     0.000177810
     0.000670403
     0.000177809
     0.001517558
     0.000266419
     0.000126527
     0.001517557
     0.000266418
     0.000126497
     0.001190458
    -0.000078272
     0.000965334
    -0.000248879
     0.001190458
    -0.000078263
     0.000965334
    -0.000249583
     0.001329994
     0.000744164
     0.001449943
     0.001630606
     0.001329987
     0.000744102
     0.001449943
     0.001630613
     0.001126508
    -0.000110993
     0.000852036
     0.001367814
     0.000655214
     0.000079645
     0.001285571
     0.001056485
     0.001285574
     0.001056495
     0.000389730
     0.000389730
     0.001168365
     0.001313246
     0.001168371
     0.001313251
     0.000790686
     0.001190200
     0.000790676
     0.001190200
     0.001568817
     0.000469027
     0.001891770
     0.001316084
     0.000086163
     0.001279177
     0.000670074
     0.001279178
     0.000670131
     0.000827186
     0.000827185
     0.001214030
     0.001573266
     0.001214028
     0.001573270
     0.001044211
     0.001502967
     0.001044180
     0.001502968
     0.001395105
    -0.000502874
     0.001189761
     0.001636795
     0.001395098
    -0.000502904
     0.001189760
     0.001636807
     0.001480847
     0.000266457
     0.001363714
     0.001583403
     0.001480846
     0.000266501
     0.001363715
     0.001583424
     0.001097246
     0.000584433
     0.001097245
     0.000584433
     0.001313313
     0.000189418
     0.001313311
     0.000189418
     0.001429305
    -0.000382188
     0.001132195
     0.001189334
     0.001429305
    -0.000381949
     0.001132197
     0.001189408
     0.001553954
     0.000564560
     0.001844649
     0.001553951
     0.000564559
     0.001844673
     0.001363914
     0.001079367
     0.001453625
     0.001495585
     0.001363918
     0.001079376
     0.001453628
     0.001495594
     0.001129648
     0.000501025
     0.001240969
     0.001482609
     0.001129640
     0.000500840
     0.001240968
     0.001482612
     0.001412388
     0.000877185
     0.001326070
     0.001110492
     0.001412391
     0.000877188
     0.001326073
     0.001110525
     0.001427384
    -0.000000028
     0.000728762
     0.001631733
     0.001427382
    -0.000000028
     0.000728761
     0.001631734
     0.000730126
     0.000450321
     0.000730125
     0.000450320
     0.001004205
     0.000063677
     0.001004204
     0.000063677
    -0.000580952
    -0.000583998
    -0.001255762
    -0.000174835
    -0.001255751
    -0.000174836
    -0.000000000
    -0.000156461
    -0.000001061
    -0.000000000
    -0.000156446
    -0.000001061
    -0.000593517
    -0.000989433
    -0.000593510
    -0.000989419
    -0.001250096
    -0.001027953
    -0.001250095
    -0.001027954
    -0.001525653
    -0.000315592
    -0.001525650
    -0.000315595
    -0.001135985
    -0.000811954
    -0.001135978
    -0.000811958
    -0.000029021
    -0.000977548
    -0.000029017
    -0.000977518
    -0.000897458
    -0.000033592
    -0.000897435
    -0.000033591
    -0.000000018
    -0.001211821
    -0.000000015
    -0.000000018
    -0.001211809
    -0.000000015
    -0.001431953
    -0.000919230
    -0.001431950
    -0.000919240
    -0.001365451
    -0.000000254
    -0.001580232
    -0.000981799
    -0.000627799
    -0.000627783
    -0.001217964
    -0.001217963
    -0.000122455
    -0.000122440
    -0.001034066
    -0.001034003
    -0.000331932
    -0.000513907
    -0.000057043
    -0.000006271
    -0.001344223
    -0.001159880
    -0.000927561
    -0.000842245
    -0.001176398
    -0.001117042
    -0.000466898
    -0.000463964
    -0.000882933
    -0.000865063
    -0.000000016
    -0.000000321
    -0.000062416
    -0.000162371
    -0.000060598
    -0.001069975
    -0.000844624
    -0.001173709
    -0.000551758
    -0.001365528
    -0.000959900
    -0.000063050
    -0.000031889
    -0.001524020
    -0.001468573
    -0.000913873
    -0.000654682
    -0.001432983
    -0.001301543
    -0.000024349
    -0.000015186
    -0.001233560
    -0.001151887
    -0.000000076
    -0.000000704
    -0.001307165
    -0.000762654
    -0.000777780
    -0.000766255
    -0.000243413
    -0.000128392
    -0.001239220
    -0.000994884
    -0.000570429
    -0.000430962
    -0.000794910
    -0.001507792
    -0.000008146
    -0.001348998
    -0.000331982
    -0.000513878
    -0.000056867
    -0.000006262
    -0.001344232
    -0.001159940
    -0.000927503
    -0.000842193
    -0.001176351
    -0.001117009
    -0.000883016
    -0.000865157
    -0.000467070
    -0.000464235
    -0.000000016
    -0.000000320
    -0.000062460
    -0.001070019
    -0.000844691
    -0.000162479
    -0.000060715
    -0.001173766
    -0.000551761
    -0.001365583
    -0.000959912
    -0.000062932
    -0.000031832
    -0.001524042
    -0.001468617
    -0.000913767
    -0.000654638
    -0.001432954
    -0.001301550
    -0.001233614
    -0.001151982
    -0.000024386
    -0.000015225
    -0.000000075
    -0.000000704
    -0.001307124
    -0.000762667
    -0.000777851
    -0.000766314
    -0.000243470
    -0.000128547
    -0.001239168
    -0.000994853
    -0.000569834
    -0.000431008
    -0.000794738
    -0.001507784
    -0.001349072
    -0.000008170
    -0.000531011
    -0.000699815
    -0.001795435
    -0.001660476
    -0.000048503
    -0.001520003
    -0.001483566
    -0.001418080
    -0.001296727
    -0.001233631
    -0.001232333
    -0.000899703
    -0.000941228
    -0.000505767
    -0.000000723
    -0.000000014
    -0.001714225
    -0.001516776
    -0.000161026
    -0.000314652
    -0.002094161
    -0.001581835
    -0.000022202
    -0.001321672
    -0.001886896
    -0.001867807
    -0.000012163
    -0.000077471
    -0.001818670
    -0.001744960
    -0.001454381
    -0.001297209
    -0.001615315
    -0.001591376
    -0.000029827
    -0.000050993
    -0.001343056
    -0.001480830
    -0.000007425
    -0.000000002
    -0.001342378
    -0.001351086
    -0.000015798
    -0.000702079
    -0.001962456
    -0.001557641
    -0.000000032
    -0.001266703
    -0.001882232
    -0.001476654
    -0.001720401
    -0.000014513
    -0.000531035
    -0.000699788
    -0.001795474
    -0.001660472
    -0.000048341
    -0.001519972
    -0.001483518
    -0.001418084
    -0.001296684
    -0.000900085
    -0.000941507
    -0.001233702
    -0.001232391
    -0.000000014
    -0.000505582
    -0.000000720
    -0.000161353
    -0.000314867
    -0.001714367
    -0.001516799
    -0.002094158
    -0.001581806
    -0.000022185
    -0.001321358
    -0.001886935
    -0.001867824
    -0.000012126
    -0.000077318
    -0.001818673
    -0.001744925
    -0.001453960
    -0.001297030
    -0.000029907
    -0.000051084
    -0.001615400
    -0.001591419
    -0.000000002
    -0.001343199
    -0.001480816
    -0.000007391
    -0.001342502
    -0.001351134
    -0.000015837
    -0.000702138
    -0.001962435
    -0.001557579
    -0.000000032
    -0.001266485
    -0.001882222
    -0.001476398
    -0.000014556
    -0.001720466
