Corrected dielectric energy   =     -0.004482237
Total C-PCM charge            =      0.000000000
C-PCM corrected charges:
    -0.000163658
    -0.000163666
    -0.000137387
     0.000087739
     0.000342550
     0.000342550
     0.000520364
     0.001014273
     0.000520364
     0.001014273
     0.000483126
     0.000483122
     0.000483126
     0.000483122
    -0.001046689
    -0.001046666
    -0.000083741
    -0.000083766
    -0.000282823
    -0.000282816
     0.000482685
     0.000482669
    -0.000282823
    -0.000282816
     0.000482685
     0.000482669
    -0.002137662
    -0.002137643
    -0.000005642
    -0.000005666
    -0.002137662
    -0.002137643
    -0.000005642
    -0.000005666
     0.000357558
     0.000357553
     0.000514885
     0.000514877
     0.000357558
     0.000357553
     0.000514885
     0.000514877
     0.000431181
     0.000431190
     0.000936197
     0.000936189
     0.000431181
     0.000431190
     0.000936197
     0.000936189
     0.001081133
     0.001081133
     0.001163304
     0.001163303
     0.001081133
     0.001081133
     0.001163304
     0.001163303
    -0.000579193
    -0.000579142
     0.000317985
     0.000317978
    -0.000579193
    -0.000579142
     0.000317985
     0.000317978
    -0.000805842
    -0.000805910
    -0.000378475
    -0.000378488
    -0.000805842
    -0.000805910
    -0.000378475
    -0.000378488
     0.000409214
     0.000409219
     0.000786351
     0.000786339
     0.000409214
     0.000409219
     0.000786351
     0.000786339
    -0.000667133
    -0.000667090
     0.000454087
     0.000454069
    -0.000667133
    -0.000667090
     0.000454087
     0.000454069
    -0.000782452
    -0.000782485
     0.000200403
     0.000200387
    -0.000782452
    -0.000782485
     0.000200403
     0.000200387
    -0.001615860
    -0.001615854
     0.000200157
     0.000200137
    -0.001615860
    -0.001615854
     0.000200157
     0.000200137
     0.000099652
     0.000099646
     0.000505157
     0.000505144
     0.000099652
     0.000099646
     0.000505157
     0.000505144
     0.000160724
     0.000160739
     0.000741505
     0.000741492
     0.000160724
     0.000160739
     0.000741505
     0.000741492
     0.001045435
     0.001045436
     0.001194732
     0.001194728
     0.001045435
     0.001045436
     0.001194732
     0.001194728
    -0.000774110
    -0.000774028
     0.000376252
     0.000376240
    -0.000774110
    -0.000774028
     0.000376252
     0.000376240
    -0.001052646
    -0.001052744
    -0.000266706
    -0.000266719
    -0.001052646
    -0.001052744
    -0.000266706
    -0.000266719
     0.000851120
     0.000851120
     0.000877215
     0.000877214
     0.000851120
     0.000851120
     0.000877214
     0.000877214
    -0.000366763
    -0.000366746
     0.000225878
     0.000225876
    -0.000366763
    -0.000366746
     0.000225878
     0.000225876
    -0.000486892
    -0.000486924
    -0.000357239
    -0.000357254
    -0.000486892
    -0.000486924
    -0.000357239
    -0.000357254
     0.000817329
     0.000817331
     0.001046662
     0.001046654
     0.000817329
     0.000817331
     0.001046662
     0.001046654
    -0.000847823
    -0.000847742
     0.000419370
     0.000419354
    -0.000847823
    -0.000847742
     0.000419370
     0.000419354
    -0.001082899
    -0.001082983
    -0.000062947
    -0.000062962
    -0.001082899
    -0.001082983
    -0.000062947
    -0.000062962
    -0.002613383
    -0.002613259
    -0.000319406
    -0.000319425
    -0.002505732
    -0.002505660
     0.000169236
     0.000169215
    -0.000145650
    -0.000145664
    -0.000145650
    -0.000145664
     0.001018813
     0.001018811
     0.001018813
     0.001018811
    -0.000056890
     0.000636963
    -0.000056890
     0.000636963
     0.000995362
     0.001276999
     0.000995362
     0.001276999
    -0.000970284
    -0.000970376
    -0.000396454
    -0.000396466
    -0.000711731
    -0.000711661
     0.000263323
     0.000263315
    -0.000459239
    -0.000459263
    -0.000459239
    -0.000459263
     0.001082799
     0.001082798
     0.001082799
     0.001082798
    -0.000374386
     0.000337283
    -0.000374386
     0.000337283
     0.001053482
     0.001148758
     0.001053482
     0.001148758
    -0.000227707
    -0.000227675
     0.000574528
     0.000574519
    -0.000227707
    -0.000227675
     0.000574528
     0.000574519
     0.000946842
     0.000946843
     0.001211149
     0.001211145
     0.000946842
     0.000946843
     0.001211149
     0.001211145
    -0.000406816
    -0.000406851
    -0.000074458
    -0.000074469
    -0.000406816
    -0.000406851
    -0.000074458
    -0.000074469
    -0.002351279
    -0.002351410
    -0.000249476
    -0.000249494
    -0.002351279
    -0.002351410
    -0.000249476
    -0.000249494
     0.000940988
     0.000940988
     0.001046992
     0.001046986
     0.000940988
     0.000940988
     0.001046992
     0.001046986
    -0.002004322
    -0.002004160
     0.000237303
     0.000237283
    -0.002004322
    -0.002004160
     0.000237303
     0.000237283
    -0.002011928
    -0.002012101
     0.000071261
     0.000071237
    -0.002011928
    -0.002012101
     0.000071261
     0.000071237
     0.000748939
     0.000748938
     0.000806466
     0.000806461
     0.000748939
     0.000748938
     0.000806466
     0.000806461
    -0.001759585
    -0.001759337
    -0.000194692
    -0.000194715
    -0.001759585
    -0.001759337
    -0.000194692
    -0.000194715
     0.000087956
     0.000087946
     0.000189952
     0.000189944
     0.000087956
     0.000087946
     0.000189952
     0.000189944
     0.000773189
     0.000773191
     0.001156174
     0.001156170
     0.000773189
     0.000773191
     0.001156174
     0.001156170
     0.000193403
     0.000193412
     0.000805434
     0.000805430
     0.000193403
     0.000193412
     0.000805434
     0.000805430
    -0.002141000
    -0.002140918
     0.000213176
     0.000213155
    -0.002141000
    -0.002140918
     0.000213176
     0.000213155
     0.000614986
     0.000614986
     0.000809186
     0.000809177
     0.000614986
     0.000614986
     0.000809186
     0.000809177
    -0.002312472
    -0.002312531
    -0.000048735
    -0.000048755
    -0.002312472
    -0.002312531
    -0.000048735
    -0.000048755
    -0.000201276
    -0.000201299
     0.000205856
     0.000205845
    -0.000201276
    -0.000201299
     0.000205856
     0.000205845
     0.000645572
     0.000645577
     0.001015416
     0.001015407
     0.000645572
     0.000645577
     0.001015416
     0.001015407
    -0.000067986
    -0.000067957
     0.000670586
     0.000670573
    -0.000067986
    -0.000067957
     0.000670586
     0.000670573
    -0.001723602
    -0.001723793
    -0.000369329
    -0.000369343
    -0.001723602
    -0.001723793
    -0.000369329
    -0.000369343
    -0.000487584
    -0.000487618
    -0.000305605
    -0.000305619
    -0.000487584
    -0.000487618
    -0.000305605
    -0.000305620
    -0.001321241
    -0.001321090
     0.000261047
     0.000261032
    -0.001321241
    -0.001321090
     0.000261047
     0.000261032
     0.001106736
     0.001106736
     0.001154438
     0.001154436
     0.001106736
     0.001106736
     0.001154438
     0.001154436
    -0.000322569
    -0.000322548
     0.000460015
     0.000460011
    -0.000322569
    -0.000322548
     0.000460015
     0.000460011
     0.001090912
     0.001090912
     0.001269369
     0.001269367
     0.001090912
     0.001090912
     0.001269369
     0.001269367
    -0.000000086
    -0.000000009
    -0.000212180
    -0.000212180
    -0.000000001
    -0.000111608
    -0.000000001
    -0.000111608
    -0.000187749
    -0.000000008
    -0.000187749
    -0.000000008
    -0.001930651
    -0.001930651
    -0.000001795
    -0.000001795
    -0.000001034
    -0.000001034
    -0.000000023
    -0.000000023
    -0.000454674
    -0.000454674
    -0.000562845
    -0.000562845
    -0.001530288
    -0.001731495
    -0.000000923
    -0.000000923
    -0.000000305
    -0.000000305
    -0.000000085
    -0.000000009
    -0.000212167
    -0.000212167
    -0.000111641
    -0.000000001
    -0.000111641
    -0.000000001
    -0.000187674
    -0.000000008
    -0.000187674
    -0.000000008
    -0.001930597
    -0.001930597
    -0.000001795
    -0.000001795
    -0.000001034
    -0.000001034
    -0.000000023
    -0.000000023
    -0.000454715
    -0.000454715
    -0.000562741
    -0.000562741
    -0.001530358
    -0.001731313
    -0.000000922
    -0.000000922
    -0.000000305
    -0.000000305
