Corrected dielectric energy   =     -0.006799854
Total C-PCM charge            =     -0.000000000
C-PCM corrected charges:
    -0.000000006
     0.000371933
    -0.000056080
    -0.000055917
    -0.000038705
    -0.000038871
     0.001085838
     0.001085866
    -0.000000016
     0.000000420
     0.000536860
    -0.000429804
    -0.000145582
    -0.000285414
    -0.000429769
    -0.000145634
    -0.000285284
    -0.000003627
     0.000005520
     0.000588976
    -0.000003627
     0.000005527
     0.000589057
     0.000070690
    -0.000000143
     0.000682226
     0.000070773
    -0.000000144
     0.000682278
    -0.000084892
    -0.000000032
    -0.000001151
    -0.000084558
    -0.000000032
    -0.000001154
    -0.000313567
     0.000574541
    -0.000000371
    -0.000005513
    -0.000313942
     0.000574659
    -0.000000369
    -0.000005507
    -0.000446269
    -0.000204698
    -0.000087520
    -0.000446516
    -0.000204410
    -0.000086885
    -0.000000034
     0.000453826
    -0.000000034
     0.000453765
     0.000562173
    -0.000002352
    -0.000046509
     0.000562310
    -0.000002346
    -0.000046535
    -0.000672171
    -0.000200299
    -0.000357464
    -0.000672053
    -0.000200399
    -0.000357474
    -0.000008621
     0.000847948
    -0.000008622
     0.000847914
    -0.000331421
    -0.000020712
    -0.000006062
    -0.000015812
    -0.000331649
    -0.000020993
    -0.000006037
    -0.000015769
    -0.000000001
     0.000618216
     0.000577692
    -0.000000001
     0.000618574
     0.000577998
    -0.000000016
    -0.000233463
    -0.000000016
    -0.000233468
    -0.000650123
     0.000970633
     0.000776813
     0.000309586
    -0.000615541
     0.000006575
    -0.000615124
     0.000006279
    -0.000183833
    -0.000183841
     0.000011896
     0.000012249
    -0.000185756
    -0.000185952
    -0.000152383
    -0.000001164
    -0.000004762
    -0.000152622
    -0.000001168
    -0.000004779
    -0.000072665
    -0.000098322
    -0.000072970
    -0.000097828
    -0.000257124
     0.000781605
    -0.000257127
     0.000781562
     0.000601377
     0.000601319
    -0.000024638
     0.001011346
    -0.000424443
     0.000176596
    -0.000024757
     0.001011436
    -0.000424307
     0.000176457
    -0.000106806
     0.000783343
     0.000615834
    -0.000106807
     0.000783497
     0.000615932
     0.000094094
    -0.000065971
    -0.000066199
    -0.000000107
    -0.000000106
    -0.000020795
    -0.000020717
    -0.000000051
    -0.000609686
    -0.000010409
    -0.000476530
    -0.000010406
    -0.000476614
    -0.000000326
    -0.000856948
    -0.000000326
    -0.000856977
    -0.001162959
    -0.001162927
    -0.000000648
    -0.000000109
    -0.000000646
    -0.000000109
    -0.000002593
    -0.000000797
    -0.000000000
    -0.000311612
    -0.000002597
    -0.000000800
    -0.000000000
    -0.000311070
    -0.000722368
    -0.000749536
    -0.000722571
    -0.000749492
    -0.000172580
    -0.000172367
    -0.000006589
    -0.000006678
    -0.000006585
    -0.000006691
    -0.000697388
    -0.000426602
    -0.000696789
    -0.000426378
    -0.000915280
    -0.000915164
    -0.000013924
    -0.000007968
    -0.000417731
    -0.000883656
    -0.000013968
    -0.000008001
    -0.000417650
    -0.000883437
    -0.000028032
    -0.000082405
    -0.000028399
    -0.000082766
     0.000063908
    -0.000020983
    -0.000242262
    -0.000000795
    -0.000861568
    -0.000000795
    -0.000861966
    -0.000501488
    -0.000501467
    -0.000286724
    -0.000286341
    -0.000004541
    -0.000002282
    -0.000004524
    -0.000002275
    -0.000000006
    -0.000058439
    -0.000000006
    -0.000058164
    -0.000049397
    -0.000049279
    -0.000839953
    -0.000839939
    -0.000814606
    -0.000047892
    -0.000815080
    -0.000047709
    -0.000329715
    -0.000470965
    -0.000329874
    -0.000471101
     0.000102717
     0.000227734
     0.000362400
     0.000370783
     0.000370786
     0.001480760
     0.000793143
     0.001373196
     0.001480757
     0.000793144
     0.001373138
     0.001423071
     0.000529444
     0.001295478
     0.001329647
     0.001423073
     0.000529532
     0.001295482
     0.001329693
     0.001346152
    -0.000013226
     0.000938859
     0.001575880
     0.001346148
    -0.000013201
     0.000938859
     0.001575885
     0.001041136
     0.000290708
     0.001041134
     0.000290707
     0.001473802
     0.000495577
     0.000594021
     0.001473799
     0.000495577
     0.000593932
     0.001371656
     0.000833984
     0.000341993
     0.001371655
     0.000833985
     0.000341637
     0.001461696
    -0.000111730
     0.001134364
     0.001598337
     0.001461693
    -0.000111716
     0.001134366
     0.001598379
     0.001476929
    -0.000144887
     0.001097005
     0.001449688
     0.001476928
    -0.000145032
     0.001097008
     0.001449769
     0.001481390
     0.000845342
     0.001675525
     0.001481386
     0.000845342
     0.001675557
     0.001327921
     0.000493211
    -0.000000453
     0.001327919
     0.000493211
    -0.000000450
     0.000948719
     0.000857635
     0.000978153
     0.000922645
     0.000948725
     0.000857643
     0.000978160
     0.000922655
     0.000685911
     0.000458519
     0.000845143
     0.000976073
     0.000685911
     0.000458525
     0.000845143
     0.000976072
     0.000362092
     0.000191792
     0.000362092
     0.000191792
     0.001274029
     0.000945853
     0.001285633
     0.001201436
     0.001274034
     0.000945857
     0.001285640
     0.001201458
     0.001076153
    -0.000084031
     0.000987236
     0.001370629
     0.001076150
    -0.000084256
     0.000987236
     0.001370628
     0.000693359
     0.000207971
     0.000693359
     0.000207970
     0.001484534
     0.000307477
     0.000086274
     0.001484533
     0.000307477
     0.000086256
     0.001196249
    -0.000083486
     0.000987616
    -0.000285007
     0.001196249
    -0.000083477
     0.000987616
    -0.000285676
     0.001267933
     0.000766869
     0.001445246
     0.001599620
     0.001267929
     0.000766812
     0.001445250
     0.001599632
     0.001069508
    -0.000122412
     0.000875291
     0.001327634
     0.000676645
     0.000107808
     0.001239889
     0.000992843
     0.001239895
     0.000992858
     0.000417439
     0.000417438
     0.001098722
     0.001260424
     0.001098729
     0.001260435
     0.000770750
     0.001186175
     0.000770745
     0.001186175
     0.001512138
     0.000510860
     0.001743566
     0.001309480
     0.000123405
     0.001274981
     0.000610815
     0.001274982
     0.000610872
     0.000853822
     0.000853821
     0.001162106
     0.001542049
     0.001162105
     0.001542059
     0.001026938
     0.001492443
     0.001026915
     0.001492447
     0.001326259
    -0.000442182
     0.001207028
     0.001600322
     0.001326254
    -0.000442232
     0.001207029
     0.001600334
     0.001404180
     0.000302756
     0.001360050
     0.001536253
     0.001404180
     0.000302796
     0.001360055
     0.001536282
     0.001108205
     0.000618657
     0.001108203
     0.000618657
     0.001305605
     0.000227319
     0.001305603
     0.000227319
     0.001401086
    -0.000400677
     0.001143298
     0.001142847
     0.001401086
    -0.000400449
     0.001143301
     0.001142933
     0.001495262
     0.000604887
     0.001738014
     0.001495260
     0.000604887
     0.001738019
     0.001287535
     0.001031398
     0.001421388
     0.001442261
     0.001287539
     0.001031406
     0.001421396
     0.001442279
     0.001084072
     0.000532483
     0.001249414
     0.001461478
     0.001084067
     0.000532311
     0.001249414
     0.001461480
     0.001373617
     0.000830815
     0.001307670
     0.001050561
     0.001373620
     0.000830814
     0.001307674
     0.001050601
     0.001359775
    -0.000000029
     0.000764259
     0.001560206
     0.001359773
    -0.000000029
     0.000764259
     0.001560203
     0.000756050
     0.000482951
     0.000756049
     0.000482951
     0.001016854
     0.000096832
     0.001016853
     0.000096832
    -0.000555967
    -0.000553772
    -0.001204780
    -0.000159205
    -0.001204769
    -0.000159207
    -0.000000000
    -0.000157691
    -0.000001044
    -0.000000000
    -0.000157676
    -0.000001044
    -0.000574722
    -0.000941923
    -0.000574714
    -0.000941910
    -0.001203069
    -0.000970227
    -0.001203068
    -0.000970228
    -0.001476931
    -0.000289910
    -0.001476928
    -0.000289915
    -0.001073570
    -0.000728607
    -0.001073561
    -0.000728609
    -0.000029157
    -0.000936261
    -0.000029153
    -0.000936234
    -0.000852256
    -0.000030672
    -0.000852231
    -0.000030671
    -0.000000018
    -0.001163503
    -0.000000015
    -0.000000018
    -0.001163492
    -0.000000015
    -0.001379613
    -0.000834589
    -0.001379609
    -0.000834600
    -0.001317633
    -0.000000253
    -0.001530986
    -0.000898161
    -0.000574913
    -0.000574892
    -0.001152186
    -0.001152185
    -0.000125039
    -0.000125025
    -0.000988484
    -0.000988425
    -0.000312002
    -0.000504547
    -0.000058011
    -0.000006804
    -0.001321345
    -0.001110324
    -0.000915613
    -0.000826773
    -0.001155967
    -0.001091323
    -0.000442926
    -0.000430855
    -0.000849497
    -0.000823996
    -0.000000016
    -0.000000363
    -0.000059016
    -0.000180488
    -0.000059681
    -0.001064643
    -0.000788351
    -0.001167096
    -0.000533665
    -0.001353011
    -0.000908268
    -0.000065419
    -0.000034227
    -0.001491148
    -0.001428328
    -0.000911233
    -0.000658875
    -0.001408309
    -0.001262445
    -0.000025758
    -0.000015053
    -0.001202887
    -0.001104156
    -0.000000077
    -0.000000701
    -0.001319743
    -0.000705791
    -0.000762307
    -0.000717936
    -0.000259319
    -0.000123499
    -0.001222545
    -0.000960121
    -0.000579793
    -0.000403030
    -0.000806041
    -0.001476035
    -0.000007991
    -0.001309280
    -0.000312049
    -0.000504519
    -0.000057833
    -0.000006794
    -0.001321361
    -0.001110374
    -0.000915560
    -0.000826723
    -0.001155923
    -0.001091289
    -0.000849579
    -0.000824086
    -0.000443086
    -0.000431105
    -0.000000016
    -0.000000362
    -0.000059054
    -0.001064691
    -0.000788395
    -0.000180603
    -0.000059793
    -0.001167164
    -0.000533670
    -0.001353076
    -0.000908270
    -0.000065296
    -0.000034166
    -0.001491172
    -0.001428368
    -0.000911136
    -0.000658838
    -0.001408286
    -0.001262445
    -0.001202945
    -0.001104242
    -0.000025796
    -0.000015091
    -0.000000076
    -0.000000701
    -0.001319716
    -0.000705785
    -0.000762375
    -0.000717972
    -0.000259380
    -0.000123640
    -0.001222500
    -0.000960085
    -0.000579199
    -0.000403068
    -0.000805875
    -0.001476027
    -0.001309352
    -0.000008015
    -0.000517574
    -0.000700209
    -0.001781839
    -0.001649516
    -0.000049394
    -0.001520614
    -0.001484678
    -0.001417660
    -0.001296404
    -0.001217480
    -0.001214467
    -0.000872841
    -0.000910834
    -0.000504146
    -0.000000728
    -0.000000014
    -0.001682944
    -0.001492086
    -0.000159720
    -0.000314349
    -0.002061877
    -0.001566488
    -0.000021798
    -0.001308143
    -0.001887826
    -0.001867938
    -0.000012614
    -0.000079946
    -0.001815772
    -0.001743108
    -0.001456415
    -0.001298768
    -0.001604406
    -0.001578548
    -0.000029648
    -0.000050409
    -0.001327425
    -0.001458470
    -0.000007519
    -0.000000002
    -0.001316398
    -0.001320954
    -0.000015375
    -0.000701297
    -0.001948705
    -0.001550154
    -0.000000031
    -0.001250738
    -0.001886434
    -0.001495285
    -0.001715445
    -0.000014158
    -0.000517600
    -0.000700180
    -0.001781878
    -0.001649508
    -0.000049229
    -0.001520580
    -0.001484625
    -0.001417662
    -0.001296358
    -0.000873216
    -0.000911105
    -0.001217554
    -0.001214527
    -0.000000014
    -0.000503962
    -0.000000726
    -0.000160044
    -0.000314561
    -0.001683086
    -0.001492104
    -0.002061873
    -0.001566453
    -0.000021782
    -0.001307833
    -0.001887863
    -0.001867951
    -0.000012576
    -0.000079788
    -0.001815772
    -0.001743068
    -0.001455994
    -0.001298592
    -0.000029728
    -0.000050499
    -0.001604493
    -0.001578589
    -0.000000002
    -0.001327573
    -0.001458452
    -0.000007485
    -0.001316521
    -0.001320997
    -0.000015414
    -0.000701354
    -0.001948681
    -0.001550087
    -0.000000031
    -0.001250526
    -0.001886419
    -0.001495028
    -0.000014200
    -0.001715510
