Corrected dielectric energy   =     -0.004547086
Total C-PCM charge            =     -0.000000000
C-PCM corrected charges:
    -0.000069964
     0.000486275
    -0.000070908
    -0.000071248
     0.000632791
     0.000632817
     0.001420431
    -0.000000004
     0.001420718
    -0.000000004
     0.000957984
    -0.000099706
    -0.000227579
    -0.000219603
    -0.000536161
    -0.000227599
    -0.000219725
    -0.000535728
    -0.000000175
     0.000650672
    -0.000205048
    -0.000000174
     0.000650635
    -0.000205216
     0.000645840
     0.000208151
    -0.000365699
     0.000643855
     0.000209600
    -0.000365689
     0.000974939
    -0.000000050
    -0.000000591
     0.000974186
    -0.000000050
    -0.000000587
     0.001085438
     0.000181821
    -0.000000935
    -0.000005672
     0.001085678
     0.000181853
    -0.000000944
    -0.000005688
    -0.000504249
    -0.000143061
     0.000046802
    -0.000504231
    -0.000143780
     0.000044885
    -0.000002639
     0.000968070
    -0.000002623
     0.000968029
     0.001150656
    -0.000000000
    -0.000004599
    -0.000037116
     0.001150155
    -0.000000000
    -0.000004625
    -0.000037054
    -0.000233105
    -0.000188964
    -0.000288918
    -0.000232812
    -0.000188807
    -0.000288823
    -0.000013909
     0.000860602
    -0.000000039
    -0.000013812
     0.000860864
    -0.000000039
     0.000285233
     0.000257856
    -0.000011500
    -0.000021735
     0.000286641
     0.000258861
    -0.000011604
    -0.000021866
     0.000781215
     0.000841351
     0.000780245
     0.000840416
    -0.000017593
     0.000326169
    -0.000017557
     0.000325947
    -0.000186908
     0.001155573
     0.001209693
    -0.000000002
     0.000823793
    -0.000032279
    -0.000238894
    -0.000030640
    -0.000238237
     0.000113068
     0.000112157
     0.000986492
    -0.000000002
     0.000986572
    -0.000000002
    -0.000140925
    -0.000140527
     0.000349557
    -0.000000920
    -0.000002501
     0.000349243
    -0.000000914
    -0.000002478
     0.001180408
     0.000131324
     0.001180420
     0.000131329
     0.000095070
     0.001265724
     0.000093601
     0.001265691
     0.000892138
     0.000892149
     0.001343968
    -0.000002414
    -0.000125212
    -0.000433197
     0.001344432
    -0.000002414
    -0.000124180
    -0.000433097
    -0.000001392
     0.000926873
     0.000864437
    -0.000001387
     0.000926555
     0.000863930
     0.000575858
     0.000575862
    -0.000402024
    -0.000402013
    -0.000000007
    -0.000000007
    -0.000000007
    -0.000000007
     0.000000003
     0.000000003
     0.000000003
     0.000000003
     0.000172375
     0.000172698
     0.000172369
     0.000172692
     0.002255491
     0.002255164
     0.000068718
     0.000068729
     0.002255470
     0.002255150
     0.000068788
     0.000068675
     0.000088244
     0.000088042
     0.000088237
     0.000088034
    -0.000006280
    -0.000006263
    -0.000006282
    -0.000006260
     0.001883117
     0.001883205
     0.000870256
     0.000870259
     0.001883127
     0.001883229
     0.000870240
     0.000870291
     0.001364435
     0.001364554
     0.001364392
     0.001364620
     0.001317127
     0.000555925
     0.001317039
     0.000555937
    -0.000000287
    -0.000000287
     0.000001126
     0.000001124
    -0.000194686
    -0.000194634
     0.000001125
     0.000001124
    -0.000194630
    -0.000194673
    -0.000000000
    -0.000000000
    -0.000000000
    -0.000000000
    -0.000000099
    -0.000000098
    -0.000000099
    -0.000000098
     0.001365520
     0.001366416
    -0.000001415
    -0.000001415
     0.001365509
     0.001366442
    -0.000001414
    -0.000001416
    -0.000004382
    -0.000004348
     0.000255738
     0.001044454
     0.001044463
     0.001486981
     0.001487016
     0.002194405
     0.002194163
     0.002194476
     0.002194203
    -0.000000002
    -0.000000002
    -0.000147004
    -0.000146899
    -0.000146935
    -0.000146831
    -0.000001123
    -0.000001126
    -0.000001123
    -0.000001127
     0.000899071
     0.000898797
     0.001227899
     0.001229235
     0.000899278
     0.000899022
     0.001227968
     0.001229256
     0.001389594
     0.001389714
     0.001389691
     0.001389784
     0.002096158
     0.002096109
     0.002664906
     0.002665356
     0.002096203
     0.002096124
     0.002664963
     0.002665405
     0.000128905
     0.000129671
     0.000128972
     0.000129738
    -0.000000446
    -0.000000444
    -0.000020637
    -0.000020771
    -0.000000446
    -0.000000445
    -0.000020618
    -0.000020791
     0.001813661
     0.001813665
     0.000070369
     0.000070541
     0.001813754
     0.001813718
     0.000070376
     0.000070549
    -0.000234203
    -0.000233981
    -0.000234152
    -0.000233935
    -0.000011910
    -0.000011905
    -0.000000001
    -0.000000001
    -0.000011915
    -0.000011912
    -0.000000001
    -0.000000001
     0.001961968
     0.001961940
     0.002691323
     0.002691239
     0.001961994
     0.001961957
     0.002691338
     0.002691248
     0.000487468
     0.000487693
     0.000487479
     0.000487703
    -0.000001198
    -0.000001191
    -0.000536989
    -0.000536198
    -0.000001198
    -0.000001191
    -0.000537111
    -0.000536067
    -0.000328597
    -0.000328588
     0.002638383
     0.002638265
     0.002638415
     0.002638276
    -0.000219817
    -0.000219965
    -0.000219824
    -0.000219912
     0.001965359
     0.001383718
     0.001965389
     0.001383827
     0.000861325
     0.000861349
     0.001114393
     0.001114488
     0.001114449
     0.001114531
     0.001788916
     0.001788886
     0.000000652
     0.000000653
     0.001788963
     0.001788911
     0.000000652
     0.000000653
    -0.000069092
    -0.000069438
     0.001263505
     0.001263552
    -0.000069022
    -0.000069353
     0.001263485
     0.001263698
     0.002332790
     0.002332712
     0.002956340
     0.002956146
     0.002332842
     0.002332728
     0.002956374
     0.002956151
    -0.000020962
    -0.000021037
    -0.000020965
    -0.000021041
    -0.000069812
     0.000486297
    -0.000071219
    -0.000070893
     0.000631944
     0.000631927
    -0.000000004
     0.001420797
    -0.000000004
     0.001420530
    -0.000099990
     0.000957967
    -0.000227613
    -0.000535315
    -0.000219899
    -0.000227587
    -0.000535748
    -0.000219766
    -0.000000174
    -0.000204548
     0.000650965
    -0.000000176
    -0.000204382
     0.000650968
     0.000643595
    -0.000366480
     0.000210262
     0.000645639
    -0.000366481
     0.000208804
     0.000974287
    -0.000000585
    -0.000000050
     0.000975078
    -0.000000590
    -0.000000050
     0.000181791
     0.001085619
    -0.000005674
    -0.000000946
     0.000181776
     0.001085396
    -0.000005660
    -0.000000937
    -0.000504257
     0.000044774
    -0.000143594
    -0.000504243
     0.000046634
    -0.000142923
    -0.000002615
     0.000968075
    -0.000002631
     0.000968122
    -0.000000000
     0.001150112
    -0.000036973
    -0.000004636
    -0.000000000
     0.001150641
    -0.000037039
    -0.000004610
    -0.000232948
    -0.000288741
    -0.000188963
    -0.000233243
    -0.000288838
    -0.000189101
    -0.000013800
    -0.000000040
     0.000861170
    -0.000013899
    -0.000000040
     0.000860898
     0.000258639
     0.000286578
    -0.000021840
    -0.000011606
     0.000257695
     0.000285226
    -0.000021715
    -0.000011505
     0.000840493
     0.000780363
     0.000841391
     0.000781285
    -0.000017492
     0.000325466
    -0.000017529
     0.000325695
    -0.000187264
     0.001209847
     0.001155606
    -0.000000002
     0.000823848
    -0.000238509
    -0.000030492
    -0.000239107
    -0.000032091
     0.000111493
     0.000112431
     0.000986463
    -0.000000002
     0.000986405
    -0.000000002
    -0.000140538
    -0.000140921
     0.000348865
    -0.000002476
    -0.000000915
     0.000349199
    -0.000002498
    -0.000000921
     0.000131143
     0.001180345
     0.000131148
     0.001180351
     0.000093101
     0.001265733
     0.000094609
     0.001265779
     0.000892210
     0.000892201
    -0.000002417
     0.001344459
    -0.000433326
    -0.000123942
    -0.000002417
     0.001344016
    -0.000433402
    -0.000124963
    -0.000001392
     0.000864274
     0.000926686
    -0.000001397
     0.000864770
     0.000926973
    -0.000230765
    -0.000434271
    -0.000010598
    -0.000004346
    -0.001051581
    -0.001006557
    -0.000700911
    -0.000727914
    -0.000981622
    -0.000986888
    -0.000697163
    -0.000669355
    -0.000304815
    -0.000272830
    -0.000000476
    -0.000177999
    -0.000175984
    -0.000000010
    -0.000723164
    -0.000641842
    -0.000134382
    -0.000062314
    -0.000408506
    -0.000683777
    -0.000868332
    -0.000928939
    -0.000025317
    -0.000021854
    -0.001298585
    -0.001280199
    -0.000494764
    -0.000636481
    -0.001172927
    -0.001165133
    -0.001004698
    -0.000949304
    -0.000022054
    -0.000013994
    -0.000003688
    -0.000000012
    -0.000667263
    -0.000769269
    -0.000000002
    -0.000560657
    -0.000494945
    -0.000282020
    -0.000192043
    -0.000876188
    -0.000937353
    -0.000432132
    -0.000692383
    -0.000559670
    -0.001313762
    -0.001139640
    -0.000007888
    -0.000230913
    -0.000434174
    -0.000010534
    -0.000004327
    -0.001051507
    -0.001006694
    -0.000700659
    -0.000727741
    -0.000981444
    -0.000986772
    -0.000305144
    -0.000273290
    -0.000697352
    -0.000669605
    -0.000000010
    -0.000000473
    -0.000177782
    -0.000176377
    -0.000134558
    -0.000062594
    -0.000723186
    -0.000642048
    -0.000408481
    -0.000683695
    -0.000868100
    -0.000928961
    -0.000025181
    -0.000021751
    -0.001298589
    -0.001280284
    -0.000494735
    -0.000636314
    -0.001172773
    -0.001165124
    -0.000022124
    -0.000014066
    -0.001004785
    -0.000949542
    -0.000000002
    -0.000003663
    -0.000000012
    -0.000667127
    -0.000769305
    -0.000560765
    -0.000495067
    -0.000282026
    -0.000192597
    -0.000875882
    -0.000937261
    -0.000432121
    -0.000692583
    -0.000559124
    -0.001313697
    -0.000007942
    -0.001139799
    -0.000395149
    -0.000343154
    -0.000930508
    -0.000005897
    -0.000930757
    -0.000005917
    -0.000074059
    -0.000000001
    -0.000000076
    -0.000074350
    -0.000000001
    -0.000000076
    -0.000691280
    -0.000847775
    -0.000691336
    -0.000847627
    -0.000905411
    -0.000626095
    -0.000905473
    -0.000626152
    -0.001214177
    -0.000018762
    -0.001214268
    -0.000018783
    -0.000735073
    -0.000364086
    -0.000735345
    -0.000363942
    -0.000569037
    -0.000100414
    -0.000569365
    -0.000100712
    -0.000498592
    -0.000000000
    -0.000001152
    -0.000498874
    -0.000000000
    -0.000001159
    -0.000909761
    -0.000011670
    -0.000909927
    -0.000011712
    -0.001075013
    -0.000456105
    -0.001075173
    -0.000456087
    -0.001080752
    -0.000000001
    -0.001234132
    -0.000469017
    -0.000323785
    -0.000323990
    -0.000774766
    -0.000774943
    -0.000146038
    -0.000146508
    -0.000574580
    -0.000574726
    -0.000463046
    -0.000348025
    -0.001031380
    -0.000025471
    -0.001031357
    -0.000025459
    -0.000000000
    -0.000031269
     0.000000020
    -0.000000000
    -0.000031261
     0.000000020
    -0.000401796
    -0.000814566
    -0.000401778
    -0.000814561
    -0.001040338
    -0.000759145
    -0.001040331
    -0.000759129
    -0.001368723
    -0.000112755
    -0.001368714
    -0.000112739
    -0.000802078
    -0.000325556
    -0.000802048
    -0.000325533
    -0.000023685
    -0.000623423
    -0.000023678
    -0.000623404
    -0.000485270
    -0.000000763
    -0.000485248
    -0.000000762
    -0.000003748
    -0.001047374
    -0.000003747
    -0.001047360
    -0.001212405
    -0.000559220
    -0.001212389
    -0.000559158
    -0.000000833
    -0.001241652
    -0.001395118
    -0.000831555
    -0.000217640
    -0.000217626
    -0.000894665
    -0.000894639
    -0.000043616
    -0.000043603
    -0.000662340
    -0.000662333
    -0.000462993
    -0.000347986
    -0.001031402
    -0.000025405
    -0.001031373
    -0.000025403
    -0.000031251
    -0.000000000
     0.000000020
    -0.000031238
    -0.000000000
     0.000000020
    -0.000814643
    -0.000402112
    -0.000814634
    -0.000402095
    -0.001040259
    -0.000759025
    -0.001040254
    -0.000759029
    -0.001368748
    -0.000112507
    -0.001368738
    -0.000112508
    -0.000802019
    -0.000325487
    -0.000801985
    -0.000325478
    -0.000623461
    -0.000023733
    -0.000623422
    -0.000023726
    -0.000485255
    -0.000000760
    -0.000485211
    -0.000000759
    -0.001047450
    -0.000003763
    -0.001047430
    -0.000003762
    -0.001212364
    -0.000559086
    -0.001212348
    -0.000559128
    -0.001241727
    -0.000000837
    -0.001395086
    -0.000831544
    -0.000217689
    -0.000217659
    -0.000894544
    -0.000894529
    -0.000043666
    -0.000043648
    -0.000662417
    -0.000662395
    -0.000230896
    -0.000434190
    -0.000004335
    -0.000010526
    -0.001006761
    -0.001051431
    -0.000727801
    -0.000700680
    -0.000986815
    -0.000981447
    -0.000669603
    -0.000697315
    -0.000273267
    -0.000305100
    -0.000000472
    -0.000176616
    -0.000177594
    -0.000000010
    -0.000642064
    -0.000723062
    -0.000062632
    -0.000134409
    -0.000683746
    -0.000408513
    -0.000929027
    -0.000868026
    -0.000021769
    -0.000025183
    -0.001280313
    -0.001298564
    -0.000636398
    -0.000494791
    -0.001165186
    -0.001172737
    -0.000949578
    -0.001004724
    -0.000014068
    -0.000022107
    -0.000000012
    -0.000003656
    -0.000769297
    -0.000667016
    -0.000000002
    -0.000495035
    -0.000560693
    -0.000192726
    -0.000281757
    -0.000937337
    -0.000875852
    -0.000692758
    -0.000432095
    -0.000559213
    -0.001313711
    -0.001139790
    -0.000007938
    -0.000395183
    -0.000343263
    -0.000930731
    -0.000005931
    -0.000930471
    -0.000005910
    -0.000000001
    -0.000074363
    -0.000000077
    -0.000000001
    -0.000074061
    -0.000000076
    -0.000848157
    -0.000691300
    -0.000848293
    -0.000691239
    -0.000905523
    -0.000626226
    -0.000905458
    -0.000626166
    -0.001214233
    -0.000018832
    -0.001214138
    -0.000018810
    -0.000735379
    -0.000363865
    -0.000735095
    -0.000364005
    -0.000100585
    -0.000569303
    -0.000100276
    -0.000568957
    -0.000000000
    -0.000498884
    -0.000001162
    -0.000000000
    -0.000498586
    -0.000001154
    -0.000011649
    -0.000909849
    -0.000011605
    -0.000909675
    -0.001075194
    -0.000456078
    -0.001075027
    -0.000456092
    -0.000000001
    -0.001080670
    -0.001234143
    -0.000469224
    -0.000323974
    -0.000323757
    -0.000775013
    -0.000774828
    -0.000146411
    -0.000145925
    -0.000574793
    -0.000574627
    -0.000230759
    -0.000434285
    -0.000004354
    -0.000010589
    -0.001006631
    -0.001051520
    -0.000727966
    -0.000700927
    -0.000986930
    -0.000981626
    -0.000272831
    -0.000304795
    -0.000669370
    -0.000697145
    -0.000000010
    -0.000000475
    -0.000176214
    -0.000177824
    -0.000062359
    -0.000134256
    -0.000641868
    -0.000723062
    -0.000683816
    -0.000408540
    -0.000929003
    -0.000868265
    -0.000021868
    -0.000025315
    -0.001280238
    -0.001298573
    -0.000636553
    -0.000494820
    -0.001165198
    -0.001172899
    -0.000013998
    -0.000022042
    -0.000949354
    -0.001004656
    -0.000000002
    -0.000000012
    -0.000003681
    -0.000769258
    -0.000667166
    -0.000494925
    -0.000560606
    -0.000192177
    -0.000281782
    -0.000937424
    -0.000876158
    -0.000692539
    -0.000432113
    -0.000559736
    -0.001313782
    -0.000007887
    -0.001139647
